Data from Subt2_20-07-06-357.txt Node
Date: Tue Nov 15 20:07:06 MSK 2022
User: vat
Spectrometer: MAYP114033
Trigger mode: 0
Integration Time (sec): 3,500000E-1
Scans to average: 3
Electric dark correction enabled: true
Nonlinearity correction enabled: false
Boxcar width: 0
XAxis mode: Wavelengths
Number of Pixels in Spectrum: 2068
>>>>>Begin Spectral Data<<<<<
199,4	-2,722
199,9	1,278
200,4	-4,389
200,8	-0,389
201,3	7,278
201,8	7,944
202,2	10,278
202,7	14,944
203,2	6,611
203,6	9,944
204,1	36,278
204,6	-5,722
205	27,278
205,5	27,944
206	32,944
206,4	9,278
206,9	-3,722
207,4	0,278
207,8	19,944
208,3	35,944
208,8	19,278
209,2	12,278
209,7	19,278
210,2	4,278
210,6	29,611
211,1	20,278
211,5	12,611
212	10,944
212,5	20,278
212,9	23,278
213,4	2,611
213,9	11,944
214,3	9,944
214,8	19,278
215,3	-12,389
215,7	25,944
216,2	13,944
216,7	15,278
217,1	29,278
217,6	34,944
218,1	9,278
218,5	22,944
219	12,611
219,5	35,944
219,9	-3,056
220,4	41,611
220,9	31,278
221,3	35,611
221,8	21,944
222,3	19,611
222,7	19,278
223,2	16,611
223,6	42,611
224,1	19,611
224,6	5,611
225	4,278
225,5	13,944
226	-3,389
226,4	33,611
226,9	6,611
227,4	33,278
227,8	17,278
228,3	24,944
228,8	2,611
229,2	7,944
229,7	33,611
230,2	3,944
230,6	30,944
231,1	-7,056
231,5	20,611
232	-1,056
232,5	-5,389
232,9	34,611
233,4	6,944
233,9	15,944
234,3	9,611
234,8	26,278
235,3	-1,722
235,7	17,278
236,2	-14,389
236,7	19,278
237,1	0,278
237,6	40,611
238,1	18,944
238,5	-19,389
239	20,278
239,4	12,278
239,9	21,278
240,4	26,944
240,8	25,278
241,3	19,278
241,8	-3,722
242,2	12,944
242,7	9,278
243,2	13,278
243,6	20,278
244,1	24,278
244,6	20,278
245	11,611
245,5	32,944
245,9	36,278
246,4	35,944
246,9	12,611
247,3	27,944
247,8	21,278
248,3	17,944
248,7	22,611
249,2	-4,056
249,7	33,611
250,1	21,611
250,6	15,611
251	14,944
251,5	10,944
252	13,278
252,4	43,611
252,9	40,278
253,4	15,611
253,8	-27,722
254,3	23,944
254,8	40,944
255,2	2,944
255,7	20,944
256,1	20,278
256,6	22,278
257,1	8,944
257,5	0,278
258	-6,389
258,5	12,278
258,9	20,944
259,4	14,278
259,9	43,611
260,3	9,944
260,8	23,278
261,2	7,611
261,7	25,611
262,2	14,611
262,6	16,278
263,1	51,611
263,6	26,944
264	5,944
264,5	-1,722
264,9	29,611
265,4	35,944
265,9	2,278
266,3	26,278
266,8	18,611
267,3	44,278
267,7	11,611
268,2	13,944
268,7	21,278
269,1	5,278
269,6	15,611
270	27,611
270,5	29,611
271	18,611
271,4	9,611
271,9	25,944
272,4	-7,722
272,8	17,611
273,3	42,944
273,7	38,278
274,2	32,944
274,7	49,278
275,1	8,278
275,6	22,278
276,1	10,278
276,5	17,611
277	18,278
277,4	19,611
277,9	37,278
278,4	23,944
278,8	27,611
279,3	-11,722
279,8	10,611
280,2	19,611
280,7	13,278
281,1	10,944
281,6	0,611
282,1	1,611
282,5	24,944
283	1,611
283,4	28,944
283,9	-7,722
284,4	10,944
284,8	25,944
285,3	7,278
285,8	21,611
286,2	28,611
286,7	47,611
287,1	2,611
287,6	41,944
288,1	-17,389
288,5	-10,389
289	-3,722
289,5	44,944
289,9	-10,056
290,4	30,611
290,8	-5,722
291,3	12,944
291,8	4,944
292,2	58,611
292,7	6,944
293,1	17,278
293,6	-5,056
294,1	46,611
294,5	-11,389
295	11,278
295,5	21,611
295,9	29,944
296,4	11,278
296,8	22,944
297,3	9,278
297,8	2,278
298,2	1,611
298,7	19,944
299,1	4,278
299,6	38,944
300,1	-5,056
300,5	44,278
301	-6,056
301,5	29,611
301,9	-13,056
302,4	7,278
302,8	2,944
303,3	52,611
303,8	10,278
304,2	12,278
304,7	26,944
305,1	14,944
305,6	38,944
306,1	43,611
306,5	38,611
307	19,944
307,4	23,944
307,9	23,611
308,4	19,278
308,8	18,278
309,3	6,278
309,8	14,278
310,2	3,278
310,7	24,611
311,1	23,278
311,6	14,278
312,1	32,944
312,5	-4,722
313	-0,389
313,4	8,278
313,9	20,278
314,4	30,944
314,8	-6,389
315,3	34,611
315,7	1,944
316,2	33,278
316,7	10,944
317,1	16,278
317,6	17,278
318	12,611
318,5	-1,389
319	-11,056
319,4	8,611
319,9	24,278
320,3	18,611
320,8	-1,056
321,3	26,611
321,7	33,611
322,2	-4,389
322,6	17,944
323,1	-2,056
323,6	11,278
324	18,278
324,5	26,611
324,9	0,944
325,4	13,611
325,9	-17,722
326,3	6,944
326,8	29,944
327,2	20,278
327,7	-12,722
328,2	9,944
328,6	54,611
329,1	22,944
329,5	27,944
330	19,944
330,5	21,278
330,9	29,278
331,4	5,278
331,8	8,944
332,3	25,611
332,8	-20,389
333,2	15,278
333,7	26,944
334,1	25,611
334,6	19,278
335,1	12,611
335,5	26,944
336	-7,056
336,4	2,944
336,9	9,611
337,4	29,944
337,8	17,611
338,3	19,611
338,7	22,611
339,2	39,611
339,7	20,944
340,1	7,611
340,6	9,944
341	11,611
341,5	16,278
342	-9,722
342,4	-4,389
342,9	31,278
343,3	-14,389
343,8	49,611
344,2	36,611
344,7	20,278
345,2	36,944
345,6	10,278
346,1	-1,389
346,5	10,611
347	15,278
347,5	56,944
347,9	23,611
348,4	23,611
348,8	5,278
349,3	-10,722
349,8	14,278
350,2	1,611
350,7	11,944
351,1	16,944
351,6	18,944
352	8,944
352,5	11,611
353	16,944
353,4	58,278
353,9	19,944
354,3	26,944
354,8	62,944
355,3	61,278
355,7	50,611
356,2	52,278
356,6	50,611
357,1	63,611
357,5	73,944
358	57,611
358,5	83,611
358,9	101,278
359,4	123,611
359,8	132,944
360,3	162,944
360,8	165,611
361,2	196,611
361,7	211,278
362,1	218,278
362,6	267,611
363	291,611
363,5	334,611
364	343,278
364,4	393,611
364,9	410,611
365,3	424,944
365,8	480,611
366,3	520,611
366,7	530,611
367,2	554,611
367,6	565,278
368,1	596,944
368,5	600,278
369	612,944
369,5	619,278
369,9	590,278
370,4	607,944
370,8	624,944
371,3	579,278
371,7	560,278
372,2	526,278
372,7	553,944
373,1	482,278
373,6	459,944
374	446,944
374,5	409,278
374,9	374,611
375,4	337,278
375,9	348,944
376,3	347,944
376,8	284,944
377,2	277,611
377,7	283,611
378,2	279,944
378,6	261,278
379,1	233,278
379,5	238,278
380	236,944
380,4	244,278
380,9	255,944
381,4	193,278
381,8	262,278
382,3	211,611
382,7	204,944
383,2	214,944
383,6	183,944
384,1	195,611
384,6	229,944
385	197,278
385,5	213,944
385,9	226,944
386,4	194,944
386,8	243,944
387,3	197,944
387,7	221,611
388,2	229,611
388,7	242,278
389,1	229,944
389,6	226,611
390	237,611
390,5	258,944
390,9	241,611
391,4	296,611
391,9	266,278
392,3	278,944
392,8	270,611
393,2	289,611
393,7	308,278
394,1	324,278
394,6	328,278
395,1	320,611
395,5	350,944
396	350,611
396,4	336,611
396,9	378,278
397,3	363,611
397,8	398,944
398,2	373,944
398,7	384,944
399,2	400,611
399,6	416,278
400,1	476,278
400,5	449,944
401	461,611
401,4	486,944
401,9	525,278
402,4	502,611
402,8	524,611
403,3	512,944
403,7	503,944
404,2	547,278
404,6	581,944
405,1	562,611
405,5	615,944
406	587,611
406,5	598,278
406,9	654,278
407,4	676,611
407,8	691,944
408,3	669,611
408,7	720,278
409,2	723,611
409,6	725,944
410,1	793,611
410,6	806,944
411	809,278
411,5	808,611
411,9	816,278
412,4	832,944
412,8	850,944
413,3	871,611
413,7	890,944
414,2	913,944
414,7	918,611
415,1	961,611
415,6	924,944
416	1004,611
416,5	968,278
416,9	1012,278
417,4	1044,944
417,8	1075,611
418,3	1069,278
418,8	1142,611
419,2	1112,278
419,7	1162,278
420,1	1188,278
420,6	1149,611
421	1189,611
421,5	1217,611
421,9	1210,944
422,4	1262,611
422,8	1263,611
423,3	1265,944
423,8	1292,944
424,2	1312,278
424,7	1343,611
425,1	1311,278
425,6	1381,611
426	1371,944
426,5	1386,944
426,9	1380,944
427,4	1418,611
427,9	1455,278
428,3	1465,278
428,8	1483,944
429,2	1469,611
429,7	1529,944
430,1	1508,278
430,6	1523,278
431	1538,944
431,5	1540,278
431,9	1577,278
432,4	1595,611
432,8	1568,611
433,3	1595,611
433,8	1581,278
434,2	1659,944
434,7	1638,278
435,1	1676,944
435,6	1668,611
436	1658,944
436,5	1682,611
436,9	1719,278
437,4	1755,278
437,8	1721,278
438,3	1745,944
438,8	1757,278
439,2	1748,611
439,7	1790,278
440,1	1784,944
440,6	1763,278
441	1790,944
441,5	1791,278
441,9	1810,944
442,4	1758,944
442,8	1815,611
443,3	1861,278
443,7	1827,944
444,2	1834,278
444,7	1801,944
445,1	1880,611
445,6	1897,944
446	1877,944
446,5	1895,278
446,9	1867,278
447,4	1873,278
447,8	1831,278
448,3	1880,944
448,7	1861,944
449,2	1864,611
449,6	1876,944
450,1	1877,944
450,6	1920,278
451	1892,944
451,5	1832,611
451,9	1898,944
452,4	1907,611
452,8	1890,278
453,3	1912,278
453,7	1929,944
454,2	1909,278
454,6	1899,611
455,1	1918,944
455,5	1880,611
456	1865,278
456,4	1892,278
456,9	1874,944
457,3	1900,611
457,8	1928,944
458,3	1900,278
458,7	1908,611
459,2	1928,944
459,6	1877,278
460,1	1892,944
460,5	1891,611
461	1854,278
461,4	1896,611
461,9	1907,944
462,3	1882,278
462,8	1860,944
463,2	1850,944
463,7	1870,611
464,1	1849,611
464,6	1863,611
465	1852,611
465,5	1823,278
466	1850,278
466,4	1824,278
466,9	1817,278
467,3	1816,278
467,8	1786,611
468,2	1794,611
468,7	1800,944
469,1	1808,278
469,6	1774,944
470	1778,278
470,5	1794,944
470,9	1788,944
471,4	1805,944
471,8	1795,944
472,3	1768,278
472,7	1789,611
473,2	1789,944
473,6	1769,611
474,1	1733,611
474,5	1728,611
475	1729,611
475,4	1765,611
475,9	1707,278
476,4	1717,611
476,8	1698,278
477,3	1707,944
477,7	1736,611
478,2	1695,611
478,6	1667,278
479,1	1667,278
479,5	1660,611
480	1669,611
480,4	1621,278
480,9	1684,944
481,3	1679,611
481,8	1605,611
482,2	1614,944
482,7	1616,278
483,1	1612,944
483,6	1615,611
484	1564,944
484,5	1611,278
484,9	1588,611
485,4	1587,278
485,8	1570,611
486,3	1555,278
486,7	1559,944
487,2	1557,944
487,6	1516,611
488,1	1531,944
488,5	1537,611
489	1514,278
489,4	1487,611
489,9	1490,278
490,4	1509,944
490,8	1475,278
491,3	1439,278
491,7	1471,611
492,2	1477,611
492,6	1454,278
493,1	1432,278
493,5	1416,611
494	1430,278
494,4	1415,611
494,9	1378,278
495,3	1431,944
495,8	1430,278
496,2	1364,278
496,7	1356,278
497,1	1350,278
497,6	1364,611
498	1296,944
498,5	1320,944
498,9	1348,611
499,4	1322,611
499,8	1301,278
500,3	1290,611
500,7	1296,278
501,2	1292,944
501,6	1336,944
502,1	1270,278
502,5	1275,944
503	1270,278
503,4	1227,611
503,9	1264,944
504,3	1204,944
504,8	1245,611
505,2	1217,611
505,7	1227,611
506,1	1218,278
506,6	1194,611
507	1197,944
507,5	1211,611
507,9	1216,611
508,4	1166,611
508,8	1167,278
509,3	1171,611
509,7	1137,611
510,2	1157,278
510,6	1147,278
511,1	1109,611
511,5	1127,611
512	1124,611
512,4	1123,611
512,9	1160,278
513,3	1132,944
513,8	1113,611
514,2	1087,944
514,7	1100,278
515,1	1088,611
515,6	1063,278
516	1088,611
516,5	1045,944
516,9	1095,278
517,4	1063,278
517,8	1053,278
518,3	1042,611
518,7	996,278
519,2	1067,278
519,6	1020,278
520,1	1007,611
520,5	1016,611
521	1029,278
521,4	1004,278
521,9	1008,944
522,3	993,944
522,8	971,611
523,2	976,611
523,7	954,611
524,1	960,944
524,6	943,944
525	936,278
525,5	939,944
525,9	988,944
526,4	928,611
526,8	909,944
527,3	917,944
527,7	935,278
528,2	894,944
528,6	925,611
529,1	902,611
529,5	892,944
530	900,944
530,4	874,944
530,9	895,611
531,3	862,278
531,8	818,611
532,2	807,278
532,6	870,278
533,1	815,944
533,5	856,611
534	807,278
534,4	808,944
534,9	812,611
535,3	809,278
535,8	820,944
536,2	791,944
536,7	821,278
537,1	778,611
537,6	738,944
538	804,611
538,5	789,611
538,9	761,944
539,4	783,944
539,8	769,611
540,3	758,278
540,7	782,611
541,2	736,278
541,6	748,611
542,1	733,611
542,5	703,944
543	750,278
543,4	716,611
543,9	706,611
544,3	722,278
544,8	721,278
545,2	683,944
545,7	700,944
546,1	676,611
546,5	669,944
547	678,611
547,4	669,611
547,9	647,944
548,3	663,611
548,8	649,278
549,2	679,278
549,7	622,944
550,1	622,278
550,6	654,278
551	671,944
551,5	638,278
551,9	636,611
552,4	634,944
552,8	643,278
553,3	598,944
553,7	609,611
554,2	596,611
554,6	604,944
555,1	607,944
555,5	625,944
555,9	604,944
556,4	582,278
556,8	556,611
557,3	588,611
557,7	574,278
558,2	578,944
558,6	565,944
559,1	549,944
559,5	570,278
560	532,611
560,4	547,944
560,9	543,944
561,3	532,278
561,8	525,278
562,2	517,278
562,7	502,944
563,1	517,611
563,6	500,944
564	552,944
564,4	502,278
564,9	541,944
565,3	509,944
565,8	503,944
566,2	524,944
566,7	469,944
567,1	513,278
567,6	465,944
568	505,278
568,5	484,278
568,9	487,278
569,4	474,611
569,8	489,944
570,3	437,278
570,7	478,944
571,1	495,944
571,6	473,944
572	439,944
572,5	449,944
572,9	464,611
573,4	443,944
573,8	441,944
574,3	429,278
574,7	434,278
575,2	407,278
575,6	455,278
576,1	460,944
576,5	411,278
576,9	404,611
577,4	394,278
577,8	382,278
578,3	437,611
578,7	391,278
579,2	409,278
579,6	408,944
580,1	368,944
580,5	401,611
581	371,278
581,4	368,278
581,9	381,944
582,3	363,278
582,7	368,278
583,2	368,611
583,6	354,278
584,1	364,944
584,5	344,611
585	351,944
585,4	351,278
585,9	342,278
586,3	320,944
586,8	374,278
587,2	355,944
587,6	343,278
588,1	364,944
588,5	335,278
589	305,944
589,4	330,278
589,9	324,944
590,3	345,944
590,8	312,611
591,2	324,611
591,7	337,944
592,1	305,944
592,5	296,278
593	315,278
593,4	315,278
593,9	297,611
594,3	315,278
594,8	299,611
595,2	275,278
595,7	312,944
596,1	317,611
596,6	291,944
597	288,611
597,4	276,611
597,9	256,611
598,3	289,944
598,8	258,278
599,2	282,278
599,7	300,278
600,1	284,611
600,6	291,611
601	279,611
601,4	269,278
601,9	292,278
602,3	260,278
602,8	294,278
603,2	252,944
603,7	260,278
604,1	260,944
604,6	265,944
605	268,611
605,4	269,944
605,9	266,278
606,3	247,278
606,8	282,944
607,2	263,944
607,7	265,278
608,1	228,278
608,6	221,944
609	268,944
609,4	224,611
609,9	238,944
610,3	210,944
610,8	244,611
611,2	226,944
611,7	255,611
612,1	250,944
612,6	247,944
613	250,611
613,4	223,278
613,9	226,944
614,3	245,611
614,8	199,611
615,2	230,611
615,7	228,944
616,1	237,611
616,6	195,944
617	191,278
617,4	206,611
617,9	189,611
618,3	220,944
618,8	196,944
619,2	200,278
619,7	207,944
620,1	219,944
620,5	188,278
621	237,944
621,4	183,278
621,9	201,611
622,3	199,611
622,8	198,278
623,2	196,611
623,6	164,278
624,1	175,611
624,5	141,611
625	193,944
625,4	180,611
625,9	183,611
626,3	174,944
626,8	186,611
627,2	151,278
627,6	198,611
628,1	159,278
628,5	167,278
629	177,278
629,4	171,944
629,9	177,944
630,3	170,278
630,7	180,611
631,2	152,611
631,6	174,611
632,1	191,944
632,5	169,611
633	150,611
633,4	141,944
633,8	178,278
634,3	159,278
634,7	138,278
635,2	115,944
635,6	133,611
636,1	157,278
636,5	141,278
636,9	152,278
637,4	133,278
637,8	114,278
638,3	141,611
638,7	149,944
639,2	142,278
639,6	151,278
640	120,611
640,5	129,944
640,9	149,278
641,4	125,944
641,8	146,944
642,2	135,611
642,7	150,278
643,1	128,944
643,6	112,278
644	141,278
644,5	166,611
644,9	131,611
645,3	115,611
645,8	125,278
646,2	112,611
646,7	126,611
647,1	127,278
647,6	128,278
648	121,278
648,4	149,944
648,9	129,278
649,3	112,278
649,8	124,944
650,2	136,611
650,6	94,611
651,1	100,944
651,5	143,611
652	136,944
652,4	131,944
652,9	109,611
653,3	128,944
653,7	119,611
654,2	119,278
654,6	109,611
655,1	97,611
655,5	124,611
655,9	115,944
656,4	87,278
656,8	105,611
657,3	101,278
657,7	78,611
658,2	112,611
658,6	106,278
659	89,944
659,5	127,278
659,9	92,278
660,4	77,944
660,8	114,611
661,2	100,944
661,7	127,278
662,1	69,611
662,6	120,278
663	85,944
663,4	81,278
663,9	78,944
664,3	105,278
664,8	97,278
665,2	76,278
665,6	70,611
666,1	125,278
666,5	78,611
667	88,611
667,4	98,278
667,9	109,611
668,3	71,611
668,7	65,278
669,2	121,944
669,6	53,278
670,1	84,611
670,5	77,611
670,9	117,944
671,4	92,611
671,8	74,278
672,3	86,944
672,7	107,944
673,1	64,944
673,6	52,611
674	67,611
674,5	80,278
674,9	81,944
675,3	90,278
675,8	75,944
676,2	87,944
676,7	70,278
677,1	93,944
677,5	84,944
678	84,944
678,4	77,611
678,9	63,278
679,3	64,944
679,7	77,944
680,2	59,278
680,6	73,278
681,1	62,611
681,5	125,611
681,9	65,611
682,4	84,611
682,8	48,611
683,3	50,944
683,7	61,944
684,1	49,611
684,6	57,278
685	52,944
685,5	50,278
685,9	47,611
686,3	68,611
686,8	54,611
687,2	66,944
687,7	79,944
688,1	64,611
688,5	67,611
689	36,944
689,4	54,944
689,9	61,611
690,3	46,278
690,7	52,278
691,2	71,944
691,6	53,611
692	56,944
692,5	76,611
692,9	72,611
693,4	40,944
693,8	68,278
694,2	47,944
694,7	57,944
695,1	103,944
695,6	58,944
696	72,611
696,4	45,278
696,9	45,278
697,3	61,611
697,8	48,611
698,2	67,944
698,6	69,611
699,1	63,944
699,5	17,944
699,9	33,278
700,4	18,611
700,8	73,278
701,3	31,944
701,7	56,944
702,1	55,944
702,6	48,278
703	49,944
703,5	85,611
703,9	59,611
704,3	43,611
704,8	66,611
705,2	49,278
705,6	55,278
706,1	56,944
706,5	63,944
707	42,944
707,4	70,611
707,8	66,278
708,3	30,611
708,7	32,278
709,2	69,611
709,6	27,278
710	55,278
710,5	29,611
710,9	39,278
711,3	56,944
711,8	25,611
712,2	55,278
712,7	43,944
713,1	23,944
713,5	46,944
714	41,278
714,4	50,611
714,8	46,278
715,3	30,944
715,7	60,944
716,2	57,944
716,6	74,611
717	32,611
717,5	36,611
717,9	13,944
718,3	71,278
718,8	48,944
719,2	65,611
719,7	17,611
720,1	45,278
720,5	65,611
721	30,944
721,4	23,278
721,8	5,944
722,3	43,611
722,7	56,944
723,2	25,611
723,6	31,278
724	29,278
724,5	25,278
724,9	23,278
725,3	14,278
725,8	27,278
726,2	72,278
726,7	51,944
727,1	33,611
727,5	41,611
728	34,944
728,4	18,611
728,8	34,611
729,3	23,944
729,7	60,944
730,1	20,944
730,6	55,944
731	17,278
731,5	33,278
731,9	18,278
732,3	14,278
732,8	26,944
733,2	48,611
733,6	24,944
734,1	18,278
734,5	70,944
734,9	16,611
735,4	29,278
735,8	65,611
736,3	21,278
736,7	10,944
737,1	50,278
737,6	31,278
738	26,611
738,4	34,944
738,9	40,944
739,3	29,611
739,7	11,611
740,2	23,944
740,6	56,611
741,1	17,278
741,5	31,278
741,9	36,611
742,4	21,611
742,8	15,611
743,2	48,611
743,7	42,611
744,1	43,278
744,5	35,944
745	44,611
745,4	48,611
745,8	32,944
746,3	20,278
746,7	36,611
747,2	47,944
747,6	21,611
748	38,278
748,5	21,278
748,9	16,278
749,3	30,944
749,8	44,278
750,2	27,611
750,6	14,278
751,1	51,944
751,5	13,611
751,9	34,611
752,4	65,278
752,8	18,278
753,3	36,278
753,7	20,278
754,1	13,944
754,6	12,611
755	-4,056
755,4	41,944
755,9	29,611
756,3	60,611
756,7	-0,722
757,2	28,278
757,6	25,611
758	38,944
758,5	24,278
758,9	38,944
759,3	28,278
759,8	-14,389
760,2	27,611
760,6	2,944
761,1	31,944
761,5	25,611
761,9	29,611
762,4	30,611
762,8	51,944
763,3	35,278
763,7	24,944
764,1	15,944
764,6	8,278
765	20,278
765,4	20,611
765,9	40,278
766,3	20,611
766,7	25,611
767,2	11,611
767,6	27,278
768	21,611
768,5	-12,389
768,9	40,611
769,3	0,278
769,8	9,278
770,2	25,611
770,6	37,944
771,1	22,278
771,5	-18,389
771,9	6,278
772,4	9,611
772,8	2,611
773,2	15,611
773,7	45,611
774,1	0,278
774,5	45,278
775	-3,389
775,4	3,944
775,8	36,278
776,3	2,611
776,7	38,278
777,1	32,611
777,6	17,278
778	0,944
778,4	14,278
778,9	21,278
779,3	47,278
779,7	-4,722
780,2	39,944
780,6	11,944
781	21,944
781,5	-8,722
781,9	50,944
782,3	8,278
782,8	10,944
783,2	24,611
783,6	38,944
784,1	33,944
784,5	23,278
784,9	5,944
785,4	41,611
785,8	42,944
786,2	-4,056
786,7	39,278
787,1	31,611
787,5	-6,722
788	21,944
788,4	24,278
788,8	7,944
789,3	4,611
789,7	18,278
790,1	13,944
790,6	15,944
791	-2,056
791,4	26,611
791,9	9,944
792,3	17,278
792,7	32,278
793,2	40,611
793,6	9,944
794	3,944
794,5	29,944
794,9	3,944
795,3	18,278
795,8	34,611
796,2	0,611
796,6	31,611
797,1	20,278
797,5	0,278
797,9	21,611
798,4	37,611
798,8	10,944
799,2	18,944
799,7	53,611
800,1	7,278
800,5	-3,056
801	18,611
801,4	12,944
801,8	24,944
802,2	58,944
802,7	10,611
803,1	-11,722
803,5	31,611
804	35,611
804,4	39,611
804,8	-4,722
805,3	24,611
805,7	29,611
806,1	11,278
806,6	61,944
807	27,278
807,4	26,611
807,9	8,944
808,3	12,611
808,7	16,278
809,2	-3,722
809,6	20,944
810	36,278
810,4	31,278
810,9	50,278
811,3	9,611
811,7	36,611
812,2	28,944
812,6	5,611
813	36,278
813,5	-22,389
813,9	28,611
814,3	25,611
814,8	23,278
815,2	27,278
815,6	17,944
816,1	-12,722
816,5	40,278
816,9	36,944
817,3	37,944
817,8	6,611
818,2	29,278
818,6	20,944
819,1	-7,389
819,5	23,611
819,9	19,944
820,4	18,611
820,8	-11,722
821,2	-26,722
821,7	-16,056
822,1	-1,722
822,5	35,944
822,9	26,611
823,4	-11,722
823,8	25,944
824,2	11,944
824,7	27,278
825,1	22,611
825,5	64,611
826	-2,389
826,4	6,944
826,8	24,944
827,3	42,944
827,7	14,611
828,1	10,611
828,5	20,611
829	3,611
829,4	32,611
829,8	13,611
830,3	25,611
830,7	43,278
831,1	45,944
831,6	-0,389
832	18,278
832,4	34,278
832,8	28,611
833,3	26,944
833,7	9,278
834,1	42,278
834,6	12,278
835	34,611
835,4	21,944
835,8	8,944
836,3	34,278
836,7	15,278
837,1	-2,722
837,6	23,611
838	23,278
838,4	15,278
838,9	-12,722
839,3	-3,056
839,7	6,611
840,1	8,611
840,6	34,944
841	27,278
841,4	19,944
841,9	28,611
842,3	38,278
842,7	10,944
843,1	20,944
843,6	5,944
844	-0,722
844,4	9,278
844,9	23,944
845,3	24,944
845,7	12,611
846,2	15,611
846,6	29,611
847	33,944
847,4	33,278
847,9	30,944
848,3	-8,389
848,7	10,278
849,2	17,611
849,6	19,278
850	11,944
850,4	-12,389
850,9	-0,056
851,3	10,611
851,7	27,278
852,2	-3,056
852,6	8,611
853	17,611
853,4	13,611
853,9	55,278
854,3	3,278
854,7	15,278
855,2	28,611
855,6	17,944
856	22,944
856,4	36,944
856,9	11,278
857,3	11,611
857,7	11,611
858,2	6,278
858,6	5,611
859	2,944
859,4	3,611
859,9	8,944
860,3	-1,722
860,7	35,611
861,1	15,944
861,6	19,944
862	23,278
862,4	14,611
862,9	20,944
863,3	21,944
863,7	2,278
864,1	37,278
864,6	14,944
865	9,278
865,4	8,278
865,9	32,944
866,3	-8,722
866,7	-8,389
867,1	-7,389
867,6	37,944
868	0,611
868,4	32,278
868,8	52,611
869,3	23,278
869,7	4,944
870,1	0,611
870,6	25,944
871	-1,056
871,4	22,278
871,8	21,278
872,3	28,278
872,7	30,278
873,1	3,611
873,5	-12,722
874	13,278
874,4	38,611
874,8	32,278
875,3	47,278
875,7	14,944
876,1	-4,389
876,5	18,278
877	18,278
877,4	32,944
877,8	0,278
878,2	12,611
878,7	16,278
879,1	22,611
879,5	23,278
879,9	4,611
880,4	20,278
880,8	35,944
881,2	-5,056
881,7	-3,056
882,1	7,278
882,5	28,944
882,9	20,944
883,4	10,611
883,8	26,278
884,2	-16,056
884,6	9,944
885,1	27,944
885,5	12,611
885,9	3,944
886,3	42,944
886,8	20,278
887,2	8,278
887,6	31,278
888	20,611
888,5	17,278
888,9	35,611
889,3	23,611
889,8	21,944
890,2	8,278
890,6	27,278
891	12,278
891,5	35,278
891,9	44,611
892,3	14,611
892,7	4,278
893,2	8,944
893,6	9,278
894	1,278
894,4	23,611
894,9	9,611
895,3	39,611
895,7	25,611
896,1	7,944
896,6	21,278
897	19,611
897,4	-10,056
897,8	5,278
898,3	45,611
898,7	27,611
899,1	24,944
899,5	2,611
900	10,278
900,4	-1,722
900,8	-3,389
901,2	23,944
901,7	-15,389
902,1	13,944
902,5	36,278
902,9	31,944
903,4	31,944
903,8	8,278
904,2	26,611
904,6	39,278
905,1	17,944
905,5	13,611
905,9	42,611
906,3	-14,389
906,8	1,278
907,2	-17,056
907,6	29,278
908	30,611
908,5	16,278
908,9	15,278
909,3	6,611
909,7	3,278
910,2	3,944
910,6	8,611
911	18,944
911,4	5,944
911,9	5,278
912,3	9,278
912,7	22,278
913,1	25,278
913,6	32,944
914	5,278
914,4	9,278
914,8	43,944
915,3	48,944
915,7	-5,389
916,1	35,944
916,5	37,278
916,9	33,278
917,4	20,944
917,8	23,278
918,2	17,278
918,6	-10,056
919,1	-8,056
919,5	-2,389
919,9	10,944
920,3	-8,056
920,8	0,278
921,2	4,944
921,6	-25,389
922	34,944
922,5	36,611
922,9	29,611
923,3	13,278
923,7	24,944
924,2	16,944
924,6	-0,722
925	-9,722
925,4	13,611
925,8	7,611
926,3	32,944
926,7	20,944
927,1	46,944
927,5	-8,056
928	17,278
928,4	15,944
928,8	20,611
929,2	9,944
929,7	5,944
930,1	-6,389
930,5	18,944
930,9	32,944
931,3	7,944
931,8	28,278
932,2	6,944
932,6	17,278
933	32,278
933,5	24,944
933,9	2,611
934,3	31,944
934,7	-1,722
935,2	12,611
935,6	22,611
936	-2,056
936,4	39,944
936,8	45,611
937,3	37,278
937,7	20,944
938,1	3,611
938,5	13,611
939	-30,389
939,4	10,944
939,8	1,611
940,2	-1,056
940,6	24,611
941,1	20,278
941,5	52,611
941,9	-3,056
942,3	25,944
942,8	10,611
943,2	33,611
943,6	7,611
944	-9,389
944,4	25,611
944,9	34,611
945,3	3,944
945,7	23,611
946,1	25,944
946,6	18,611
947	33,278
947,4	21,611
947,8	16,278
948,2	13,944
948,7	20,611
949,1	17,944
949,5	22,278
949,9	40,278
950,3	33,944
950,8	24,278
951,2	3,278
951,6	18,278
952	2,944
952,5	15,944
952,9	0,278
953,3	-10,722
953,7	-9,722
954,1	10,278
954,6	27,944
955	11,278
955,4	-16,056
955,8	33,278
956,2	37,611
956,7	-3,056
957,1	15,944
957,5	13,944
957,9	10,278
958,3	32,278
958,8	6,611
959,2	17,611
959,6	21,944
960	-14,056
960,5	28,944
960,9	-3,056
961,3	34,944
961,7	-25,389
962,1	12,278
962,6	11,278
963	18,278
963,4	-6,722
963,8	0,611
964,2	-20,389
964,7	18,611
965,1	12,278
965,5	-3,056
965,9	34,278
966,3	26,611
966,8	7,278
967,2	4,278
967,6	40,611
968	41,278
968,4	16,944
968,9	32,944
969,3	3,611
969,7	19,611
970,1	29,944
970,5	39,611
971	40,944
971,4	19,944
971,8	15,944
972,2	5,944
972,6	12,278
973,1	21,611
973,5	-10,389
973,9	21,611
974,3	17,611
974,7	33,611
975,2	0,944
975,6	-22,056
976	14,611
976,4	0,278
976,8	23,278
977,3	30,611
977,7	29,944
978,1	17,611
978,5	27,611
978,9	8,278
979,4	-9,389
979,8	24,944
980,2	23,944
980,6	-3,722
981	18,278
981,5	27,611
981,9	-2,389
982,3	10,278
982,7	16,611
983,1	34,944
983,6	-0,389
984	36,278
984,4	8,944
984,8	11,278
985,2	33,944
985,6	-17,389
986,1	5,611
986,5	36,611
986,9	12,611
987,3	22,278
987,7	12,944
988,2	-28,722
988,6	-1,722
989	27,278
989,4	21,611
989,8	2,278
990,3	32,944
990,7	6,944
991,1	28,944
991,5	-2,722
991,9	14,278
992,3	38,611
992,8	38,278
993,2	55,611
993,6	36,944
994	28,944
994,4	2,278
994,9	12,611
995,3	40,944
995,7	30,278
996,1	9,611
996,5	-6,389
996,9	4,278
997,4	5,611
997,8	5,611
998,2	21,944
998,6	4,611
999	7,944
999,5	66,944
999,9	9,278
1000,3	21,611
1000,7	37,278
1001,1	41,278
1001,5	23,278
1002	-10,389
1002,4	12,944
1002,8	6,611
1003,2	0,944
1003,6	-12,722
1004	29,278
1004,5	16,944
1004,9	15,611
1005,3	1,944
1005,7	-1,722
1006,1	6,278
1006,6	4,278
1007	26,944
1007,4	-30,056
1007,8	-5,056
1008,2	13,611
1008,6	10,944
1009,1	10,611
1009,5	18,278
1009,9	20,278
1010,3	-3,056
1010,7	11,611
1011,1	19,611
1011,6	41,611
1012	48,278
1012,4	25,278
1012,8	40,944
1013,2	-4,056
1013,6	48,611
1014,1	27,611
1014,5	-25,056
1014,9	54,944
1015,3	7,944
1015,7	15,944
1016,1	-3,056
1016,6	13,278
1017	11,278
1017,4	-9,389
1017,8	-6,722
1018,2	27,611
1018,6	19,278
1019,1	26,944
1019,5	7,611
1019,9	45,611
1020,3	14,944
1020,7	-27,722
1021,1	11,944
1021,6	12,944
1022	11,944
1022,4	13,611
1022,8	16,278
1023,2	15,278
1023,6	-13,389
1024,1	11,944
1024,5	5,611
1024,9	3,278
1025,3	28,278
1025,7	18,278
1026,1	40,278
1026,6	3,944
1027	-23,056
1027,4	30,944
1027,8	10,944
1028,2	27,944
1028,6	39,611
1029	-5,056
1029,5	8,944
1029,9	29,278
1030,3	-3,722
1030,7	13,611
1031,1	18,278
1031,5	26,278
1032	8,611
1032,4	31,278
1032,8	31,278
1033,2	39,278
1033,6	-9,722
1034	16,944
1034,4	8,611
1034,9	17,611
1035,3	11,278
1035,7	31,611
1036,1	20,278
1036,5	-0,056
1036,9	12,278
1037,4	17,278
1037,8	15,944
1038,2	22,278
1038,6	9,944
1039	32,278
1039,4	-8,722
1039,8	1,944
1040,3	9,944
1040,7	42,611
1041,1	16,944
1041,5	21,944
1041,9	22,611
1042,3	30,611
1042,7	-10,389
1043,2	10,944
1043,6	22,611
1044	6,278
1044,4	11,278
1044,8	22,278
1045,2	28,611
1045,6	28,944
1046,1	23,611
1046,5	39,944
1046,9	24,944
1047,3	49,611
1047,7	15,278
1048,1	11,278
1048,5	4,278
1049	-0,722
1049,4	28,944
1049,8	-19,056
1050,2	-4,389
1050,6	8,611
1051	47,278
1051,4	27,611
1051,9	3,611
1052,3	-8,389
1052,7	4,611
1053,1	-7,389
1053,5	-15,722
1053,9	23,944
1054,3	28,278
1054,8	30,611
1055,2	9,611
1055,6	8,944
1056	23,944
1056,4	28,611
1056,8	38,278
1057,2	22,278
1057,6	32,611
1058,1	83,278
1058,5	18,278
1058,9	46,611
1059,3	2,944
1059,7	36,278
1060,1	11,278
1060,5	29,278
1061	12,278
1061,4	-18,722
1061,8	33,944
1062,2	-25,389
1062,6	7,611
1063	25,944
1063,4	34,944
1063,8	-1,056
1064,3	17,278
1064,7	-2,056
1065,1	-12,722
1065,5	31,944
1065,9	81,278
1066,3	17,944
1066,7	44,944
1067,1	31,611
1067,6	56,278
1068	9,611
1068,4	22,611
1068,8	23,611
1069,2	41,944
1069,6	24,944
1070	21,278
1070,4	11,611
1070,9	48,611
1071,3	18,611
1071,7	28,944
1072,1	17,611
1072,5	21,611
1072,9	9,278
1073,3	38,278
1073,7	20,611
1074,2	2,611
1074,6	26,611
1075	-2,722
1075,4	6,278
1075,8	27,278
1076,2	32,611
1076,6	-3,056
1077	12,944
1077,5	0,611
1077,9	22,611
1078,3	16,944
1078,7	27,944
1079,1	20,278
1079,5	25,278
1079,9	18,278
1080,3	28,278
1080,7	21,611
1081,2	11,278
1081,6	12,944
1082	-12,722
1082,4	8,611
1082,8	-2,389
1083,2	6,278
1083,6	-9,389
1084	60,944
1084,5	10,944
1084,9	11,278
1085,3	38,611
1085,7	22,611
1086,1	6,611
1086,5	12,944
1086,9	17,611
1087,3	30,611
1087,7	-2,389
1088,2	5,611
1088,6	10,278
1089	43,944
1089,4	-0,056
1089,8	0,278
1090,2	-1,056
1090,6	-15,722
1091	-10,722
1091,4	8,944
1091,9	4,611
1092,3	28,278
1092,7	-3,056
1093,1	6,278
1093,5	15,611
1093,9	14,278
1094,3	53,278
1094,7	24,278
1095,1	5,944
1095,5	15,278
1096	29,611
1096,4	-4,056
1096,8	17,278
1097,2	50,944
1097,6	12,611
1098	1,944
1098,4	21,944
1098,8	18,611
1099,2	-2,389
1099,6	-1,722
1100,1	29,944
1100,5	-2,389
1100,9	6,944
1101,3	4,944
1101,7	2,278
1102,1	-13,389
1102,5	21,944
1102,9	17,944
1103,3	-8,722
1103,7	5,944
1104,2	13,278
1104,6	5,611
1105	19,611
1105,4	11,944
1105,8	14,611
1106,2	18,611
1106,6	10,611
1107	2,944
1107,4	-2,722
1107,8	1,944
1108,3	2,611
